FASENS
POLYTEC und GAIN_PHASE Messungen
Modenprofilaufnahme
5.5.1992
17:1
tf
2
um/V
Ampl
ZE, Abgriff: optisch
in Stahltr. eingekl.
Si-Membran+ZnO-Schicht
M7 - 2/3
    30000
    50000
     5000
    55000
   10.0352
 0.000128
    290.0
MLIN
 9.5
   50
 1000000
+1.00000000E-003
          5000.00     0.006421149
          5124.69     0.006445289
          5249.38     0.006680191
          5374.06     0.006802499
          5498.75     0.007702827
          5623.44     0.008056164
          5748.13     0.008451819
          5872.82     0.009862065
          5997.51     0.011028528
          6122.19     0.011334658
          6246.88     0.012930036
          6371.57     0.015352845
          6496.26     0.016298771
          6620.95     0.020676613
          6745.64     0.026566982
          6870.32     0.037699699
          6995.01     0.059006214
          7119.70     0.163179398
          7244.39     0.344024658
          7369.08     0.190849304
          7493.77     0.052522659
          7618.45     0.033314228
          7743.14     0.023320198
          7867.83     0.018422365
          7992.52     0.015366554
          8117.21     0.013503909
          8241.90     0.011530042
          8366.58     0.009858847
          8491.27     0.008956909
          8615.96     0.008059621
          8740.65     0.007484972
          8865.34     0.007187486
          8990.02     0.006293654
          9114.71     0.005775332
          9239.40     0.005561888
          9364.09     0.005396485
          9488.78     0.004597068
          9613.47     0.004562795
          9738.15     0.004464984
          9862.84     0.004349709
          9987.53     0.003841072
         10112.22     0.003504604
         10236.91     0.003551722
         10361.60     0.003277302
         10486.28     0.003109485
         10610.97     0.003093213
         10735.66     0.002681345
         10860.35     0.002534330
         10985.04     0.002312690
         11109.73     0.001912877
         11234.41     0.003179610
         11359.10     0.005067229
         11483.79     0.003680378
         11608.48     0.003355891
         11733.17     0.002789617
         11857.86     0.002637714
         11982.54     0.002483100
         12107.23     0.002447188
         12231.92     0.002327234
         12356.61     0.002433896
         12481.30     0.002582759
         12605.99     0.002482891
         12730.67     0.002257496
         12855.36     0.002591699
         12980.05     0.002575189
         13104.74     0.002177924
         13229.43     0.002044797
         13354.11     0.002016902
         13478.80     0.001972407
         13603.49     0.002284288
         13728.18     0.002123356
         13852.87     0.002362102
         13977.56     0.002562881
         14102.24     0.002254963
         14226.93     0.002387077
         14351.62     0.002553374
         14476.31     0.003017843
         14601.00     0.003356844
         14725.69     0.003183573
         14850.37     0.003391892
         14975.06     0.005698621
         15099.75     0.014083147
         15224.44     0.028500319
         15349.13     0.011010170
         15473.82     0.011305451
         15598.50     0.004813135
         15723.19     0.002208889
         15847.88     0.001337409
         15972.57     0.000966035
         16097.26     0.000636183
         16221.95     0.000449434
         16346.63     0.000373103
         16471.32     0.000369940
         16596.01     0.000271976
         16720.70     0.000204330
         16845.39     0.000186898
         16970.07     0.000173502
         17094.76     0.000159990
         17219.45     0.000180993
         17344.14     0.000187000
         17468.83     0.000162425
         17593.52     0.000422511
         17718.20     0.000468172
         17842.89     0.000282619
         17967.58     0.000309050
         18092.27     0.000246063
         18216.96     0.000249229
         18341.65     0.000333693
         18466.33     0.000309926
         18591.02     0.000326224
         18715.71     0.000306837
         18840.40     0.000475388
         18965.09     0.000375394
         19089.78     0.000223253
         19214.46     0.000196896
         19339.15     0.000192702
         19463.84     0.000195414
         19588.53     0.000216523
         19713.22     0.000182571
         19837.91     0.000152564
         19962.59     0.000162644
         20087.28     0.000141507
         20211.97     0.000165954
         20336.66     0.000209063
         20461.35     0.000248533
         20586.03     0.000244264
         20710.72     0.000305776
         20835.41     0.000316992
         20960.10     0.000241112
         21084.79     0.000262931
         21209.48     0.000251394
         21334.16     0.000217222
         21458.85     0.000215834
         21583.54     0.000214554
         21708.23     0.000212047
         21832.92     0.000187606
         21957.61     0.000175271
         22082.29     0.000121263
         22206.98     0.000140823
         22331.67     0.000411134
         22456.36     0.000760905
         22581.05     0.000357419
         22705.74     0.000379056
         22830.42     0.000196816
         22955.11     0.000145650
         23079.80     0.000204749
         23204.49     0.000217844
         23329.18     0.000235226
         23453.87     0.000126865
         23578.55     0.000146372
         23703.24     0.000161866
         23827.93     0.000146383
         23952.62     0.000187645
         24077.31     0.000163535
         24202.00     0.000170900
         24326.68     0.000150885
         24451.37     0.000157507
         24576.06     0.000143316
         24700.75     0.000148689
         24825.44     0.000088350
         24950.12     0.000122517
         25074.81     0.000190729
         25199.50     0.000084935
         25324.19     0.000147913
         25448.88     0.000112331
         25573.57     0.000081402
         25698.25     0.000076791
         25822.94     0.000128655
         25947.63     0.000122409
         26072.32     0.000200162
         26197.01     0.000138022
         26321.70     0.000128554
         26446.38     0.000176731
         26571.07     0.000151692
         26695.76     0.000198832
         26820.45     0.000213346
         26945.14     0.000211995
         27069.83     0.000220209
         27194.51     0.000208417
         27319.20     0.000255387
         27443.89     0.000294693
         27568.58     0.000241404
         27693.27     0.001457199
         27817.96     0.006968617
         27942.64     0.004943669
         28067.33     0.004717469
         28192.02     0.007091939
         28316.71     0.006999552
         28441.40     0.009920597
         28566.08     0.011445165
         28690.77     0.005075514
         28815.46     0.002417892
         28940.15     0.002027541
         29064.84     0.001406506
         29189.53     0.001077816
         29314.21     0.000751838
         29438.90     0.000627264
         29563.59     0.000532530
         29688.28     0.000524819
         29812.97     0.000401873
         29937.66     0.000772819
         30062.34     0.000631317
         30187.03     0.000636466
         30311.72     0.000564419
         30436.41     0.000416115
         30561.10     0.000496507
         30685.79     0.000420872
         30810.47     0.000392247
         30935.16     0.000391956
         31059.85     0.000339624
         31184.54     0.000355363
         31309.23     0.000412002
         31433.92     0.000303119
         31558.60     0.000343177
         31683.29     0.000295550
         31807.98     0.000377040
         31932.67     0.000322957
         32057.36     0.000306193
         32182.04     0.000338309
         32306.73     0.000223158
         32431.42     0.000303268
         32556.11     0.000259988
         32680.80     0.000316776
         32805.49     0.000231290
         32930.17     0.000274066
         33054.86     0.000273097
         33179.55     0.000340119
         33304.24     0.000340842
         33428.93     0.000291891
         33553.62     0.000481565
         33678.30     0.000377130
         33802.99     0.000446711
         33927.68     0.000396851
         34052.37     0.000501126
         34177.06     0.000610791
         34301.75     0.001169369
         34426.43     0.002395689
         34551.12     0.002476245
         34675.81     0.001432776
         34800.50     0.002006054
         34925.19     0.001318753
         35049.88     0.000303298
         35174.56     0.000233736
         35299.25     0.000186607
         35423.94     0.000133399
         35548.63     0.000086759
         35673.32     0.000122188
         35798.00     0.000085425
         35922.69     0.000067372
         36047.38     0.000077168
         36172.07     0.000053596
         36296.76     0.000080519
         36421.45     0.000063128
         36546.13     0.000063029
         36670.82     0.000089310
         36795.51     0.000098230
         36920.20     0.000076245
         37044.89     0.000074931
         37169.58     0.000058740
         37294.26     0.000072523
         37418.95     0.000061576
         37543.64     0.000049501
         37668.33     0.000104787
         37793.02     0.000049361
         37917.71     0.000105266
         38042.39     0.000065866
         38167.08     0.000069610
         38291.77     0.000089025
         38416.46     0.000071241
         38541.15     0.000066243
         38665.84     0.000086142
         38790.52     0.000091850
         38915.21     0.000096555
         39039.90     0.000111552
         39164.59     0.000109113
         39289.28     0.000120227
         39413.97     0.000088044
         39538.65     0.000105296
         39663.34     0.000086573
         39788.03     0.000082294
         39912.72     0.000094094
         40037.41     0.000099776
         40162.09     0.000080534
         40286.78     0.000107953
         40411.47     0.000103055
         40536.16     0.000120432
         40660.85     0.000103182
         40785.54     0.000087168
         40910.22     0.000115586
         41034.91     0.000122149
         41159.60     0.000088532
         41284.29     0.000112063
         41408.98     0.000086863
         41533.67     0.000095764
         41658.35     0.000128008
         41783.04     0.000154186
         41907.73     0.000156216
         42032.42     0.000107587
         42157.11     0.000119744
         42281.80     0.000093996
         42406.48     0.000109087
         42531.17     0.000133147
         42655.86     0.000154583
         42780.55     0.000098417
         42905.24     0.000149269
         43029.93     0.000113202
         43154.61     0.000122670
         43279.30     0.000112202
         43403.99     0.000139121
         43528.68     0.000175182
         43653.37     0.000186006
         43778.05     0.000193898
         43902.74     0.000171376
         44027.43     0.000165932
         44152.12     0.000218127
         44276.81     0.000219781
         44401.50     0.000241525
         44526.18     0.000229720
         44650.87     0.000300620
         44775.56     0.000319891
         44900.25     0.000372607
         45024.94     0.000612117
         45149.63     0.000709131
         45274.31     0.000960790
         45399.00     0.000826359
         45523.69     0.001169503
         45648.38     0.001918346
         45773.07     0.002486467
         45897.76     0.003207296
         46022.44     0.006288230
         46147.13     0.006412029
         46271.82     0.002284735
         46396.51     0.001382157
         46521.20     0.000894755
         46645.89     0.000493892
         46770.57     0.000437289
         46895.26     0.000335928
         47019.95     0.000243582
         47144.64     0.000261389
         47269.33     0.000206899
         47394.01     0.000174003
         47518.70     0.000234166
         47643.39     0.000209315
         47768.08     0.000190021
         47892.77     0.000222063
         48017.46     0.000138175
         48142.14     0.000145694
         48266.83     0.000122510
         48391.52     0.000112384
         48516.21     0.000088981
         48640.90     0.000118571
         48765.59     0.000107845
         48890.27     0.000154436
         49014.96     0.000113755
         49139.65     0.000178533
         49264.34     0.000155674
         49389.03     0.000099733
         49513.72     0.000146253
         49638.40     0.000121508
         49763.09     0.000086076
         49887.78     0.000120544
         50012.47     0.000077877
         50137.16     0.000087094
         50261.85     0.000091005
         50386.53     0.000085043
         50511.22     0.000095867
         50635.91     0.000083785
         50760.60     0.000093374
         50885.29     0.000062133
         51009.98     0.000071173
         51134.66     0.000094594
         51259.35     0.000064623
         51384.04     0.000062563
         51508.73     0.000116838
         51633.42     0.000135437
         51758.10     0.000100569
         51882.79     0.000144903
         52007.48     0.000098362
         52132.17     0.000116753
         52256.86     0.000105524
         52381.55     0.000114563
         52506.23     0.000077171
         52630.92     0.000129163
         52755.61     0.000082358
         52880.30     0.000071635
         53004.99     0.000087757
         53129.68     0.000093770
         53254.36     0.000087108
         53379.05     0.000164535
         53503.74     0.000082668
         53628.43     0.000059356
         53753.12     0.000091355
         53877.81     0.000057849
         54002.49     0.000076044
         54127.18     0.000077765
         54251.87     0.000071716
         54376.56     0.000084109
         54501.25     0.000082333
         54625.94     0.000064203
         54750.62     0.000060557
         54875.31     0.000069945
